Measurement
Timestamp:	20210909-173915.332
Temperature (K):	299.2
Integration (s):	1.00
Repetitions:	1

Drive Position
X (µm):	0.00
Y (µm):	4.78
Z (µm):	0.00

CCD
Temp. (K):	140.23
ADC:	20 kHz
Gain:	Best Dynamic Range
X-Range (px):	1-2048
Y-Range (px):	1-512
Binning (px):	1/1

Monochromator
Grating:	600/500
Center (nm):	500.00
Entrance (µm):	0

Data
460.816079	996.000000
460.854523	988.000000
460.892966	998.000000
460.931409	994.000000
460.969852	995.000000
461.008295	992.000000
461.046737	992.000000
461.085179	993.000000
461.123621	991.000000
461.162063	992.000000
461.200504	991.000000
461.238945	996.000000
461.277386	993.000000
461.315827	992.000000
461.354267	995.000000
461.392707	989.000000
461.431147	992.000000
461.469586	993.000000
461.508026	994.000000
461.546465	991.000000
461.584904	992.000000
461.623342	995.000000
461.661780	993.000000
461.700218	993.000000
461.738656	993.000000
461.777094	993.000000
461.815531	994.000000
461.853968	992.000000
461.892405	994.000000
461.930841	993.000000
461.969277	993.000000
462.007713	994.000000
462.046149	997.000000
462.084585	993.000000
462.123020	994.000000
462.161455	993.000000
462.199889	993.000000
462.238324	994.000000
462.276758	994.000000
462.315192	993.000000
462.353626	991.000000
462.392059	993.000000
462.430492	992.000000
462.468925	995.000000
462.507358	993.000000
462.545790	994.000000
462.584222	991.000000
462.622654	992.000000
462.661086	993.000000
462.699517	993.000000
462.737948	991.000000
462.776379	990.000000
462.814809	991.000000
462.853240	993.000000
462.891670	993.000000
462.930100	994.000000
462.968529	994.000000
463.006958	992.000000
463.045387	994.000000
463.083816	990.000000
463.122245	994.000000
463.160673	994.000000
463.199101	996.000000
463.237529	993.000000
463.275956	993.000000
463.314383	992.000000
463.352810	994.000000
463.391237	992.000000
463.429663	992.000000
463.468090	996.000000
463.506516	993.000000
463.544941	993.000000
463.583367	993.000000
463.621792	993.000000
463.660217	996.000000
463.698641	993.000000
463.737066	994.000000
463.775490	995.000000
463.813914	990.000000
463.852337	995.000000
463.890761	995.000000
463.929184	992.000000
463.967606	989.000000
464.006029	991.000000
464.044451	990.000000
464.082873	993.000000
464.121295	995.000000
464.159716	996.000000
464.198138	994.000000
464.236559	995.000000
464.274979	993.000000
464.313400	992.000000
464.351820	993.000000
464.390240	992.000000
464.428660	994.000000
464.467079	996.000000
464.505498	993.000000
464.543917	993.000000
464.582336	992.000000
464.620754	993.000000
464.659172	994.000000
464.697590	992.000000
464.736008	992.000000
464.774425	994.000000
464.812842	992.000000
464.851259	992.000000
464.889676	994.000000
464.928092	992.000000
464.966508	992.000000
465.004924	994.000000
465.043339	995.000000
465.081754	991.000000
465.120169	994.000000
465.158584	995.000000
465.196999	992.000000
465.235413	992.000000
465.273827	993.000000
465.312240	993.000000
465.350654	992.000000
465.389067	993.000000
465.427480	993.000000
465.465892	993.000000
465.504305	993.000000
465.542717	994.000000
465.581129	992.000000
465.619540	994.000000
465.657951	990.000000
465.696363	994.000000
465.734773	992.000000
465.773184	992.000000
465.811594	995.000000
465.850004	995.000000
465.888414	994.000000
465.926823	994.000000
465.965232	994.000000
466.003641	994.000000
466.042050	993.000000
466.080459	991.000000
466.118867	994.000000
466.157275	994.000000
466.195682	992.000000
466.234090	993.000000
466.272497	994.000000
466.310903	994.000000
466.349310	993.000000
466.387716	995.000000
466.426122	993.000000
466.464528	992.000000
466.502934	991.000000
466.541339	990.000000
466.579744	993.000000
466.618149	992.000000
466.656553	995.000000
466.694957	993.000000
466.733361	991.000000
466.771765	989.000000
466.810168	995.000000
466.848571	994.000000
466.886974	994.000000
466.925377	994.000000
466.963779	993.000000
467.002181	992.000000
467.040583	993.000000
467.078985	992.000000
467.117386	994.000000
467.155787	992.000000
467.194188	994.000000
467.232588	995.000000
467.270988	992.000000
467.309388	993.000000
467.347788	990.000000
467.386187	993.000000
467.424586	994.000000
467.462985	993.000000
467.501384	991.000000
467.539782	993.000000
467.578180	993.000000
467.616578	994.000000
467.654976	994.000000
467.693373	994.000000
467.731770	990.000000
467.770167	993.000000
467.808563	996.000000
467.846960	994.000000
467.885356	991.000000
467.923751	990.000000
467.962147	994.000000
468.000542	993.000000
468.038937	993.000000
468.077331	996.000000
468.115726	991.000000
468.154120	990.000000
468.192514	992.000000
468.230907	994.000000
468.269300	994.000000
468.307693	994.000000
468.346086	994.000000
468.384479	995.000000
468.422871	991.000000
468.461263	993.000000
468.499655	992.000000
468.538046	992.000000
468.576437	991.000000
468.614828	992.000000
468.653219	993.000000
468.691609	992.000000
468.729999	993.000000
468.768389	992.000000
468.806778	994.000000
468.845168	994.000000
468.883557	990.000000
468.921945	994.000000
468.960334	993.000000
468.998722	992.000000
469.037110	989.000000
469.075498	991.000000
469.113885	994.000000
469.152272	994.000000
469.190659	993.000000
469.229046	991.000000
469.267432	994.000000
469.305818	994.000000
469.344204	991.000000
469.382589	997.000000
469.420975	996.000000
469.459360	992.000000
469.497744	997.000000
469.536129	993.000000
469.574513	992.000000
469.612897	993.000000
469.651281	994.000000
469.689664	992.000000
469.728047	994.000000
469.766430	994.000000
469.804812	993.000000
469.843195	993.000000
469.881577	996.000000
469.919958	992.000000
469.958340	997.000000
469.996721	999.000000
470.035102	992.000000
470.073483	991.000000
470.111863	993.000000
470.150243	993.000000
470.188623	993.000000
470.227003	992.000000
470.265382	993.000000
470.303761	992.000000
470.342140	991.000000
470.380518	994.000000
470.418897	992.000000
470.457274	991.000000
470.495652	992.000000
470.534030	992.000000
470.572407	993.000000
470.610784	992.000000
470.649160	995.000000
470.687537	993.000000
470.725913	994.000000
470.764288	994.000000
470.802664	993.000000
470.841039	994.000000
470.879414	992.000000
470.917789	993.000000
470.956163	992.000000
470.994537	992.000000
471.032911	991.000000
471.071285	995.000000
471.109658	993.000000
471.148031	992.000000
471.186404	993.000000
471.224777	991.000000
471.263149	994.000000
471.301521	996.000000
471.339893	991.000000
471.378264	994.000000
471.416635	994.000000
471.455006	991.000000
471.493377	993.000000
471.531747	992.000000
471.570117	994.000000
471.608487	993.000000
471.646857	995.000000
471.685226	990.000000
471.723595	995.000000
471.761964	991.000000
471.800332	990.000000
471.838700	992.000000
471.877068	994.000000
471.915436	991.000000
471.953803	994.000000
471.992170	992.000000
472.030537	993.000000
472.068904	994.000000
472.107270	992.000000
472.145636	996.000000
472.184001	993.000000
472.222367	991.000000
472.260732	990.000000
472.299097	992.000000
472.337462	992.000000
472.375826	992.000000
472.414190	992.000000
472.452554	993.000000
472.490917	991.000000
472.529281	992.000000
472.567644	993.000000
472.606006	993.000000
472.644369	991.000000
472.682731	994.000000
472.721093	996.000000
472.759454	993.000000
472.797816	994.000000
472.836177	993.000000
472.874537	994.000000
472.912898	993.000000
472.951258	991.000000
472.989618	994.000000
473.027978	993.000000
473.066337	994.000000
473.104696	993.000000
473.143055	991.000000
473.181414	991.000000
473.219772	992.000000
473.258130	992.000000
473.296488	992.000000
473.334845	996.000000
473.373202	993.000000
473.411559	993.000000
473.449916	991.000000
473.488272	993.000000
473.526629	995.000000
473.564984	992.000000
473.603340	995.000000
473.641695	993.000000
473.680050	993.000000
473.718405	992.000000
473.756759	995.000000
473.795113	991.000000
473.833467	993.000000
473.871821	993.000000
473.910174	994.000000
473.948527	994.000000
473.986880	996.000000
474.025233	995.000000
474.063585	996.000000
474.101937	992.000000
474.140288	992.000000
474.178640	994.000000
474.216991	993.000000
474.255342	991.000000
474.293692	993.000000
474.332043	993.000000
474.370393	994.000000
474.408742	996.000000
474.447092	992.000000
474.485441	993.000000
474.523790	992.000000
474.562139	991.000000
474.600487	991.000000
474.638835	993.000000
474.677183	991.000000
474.715530	994.000000
474.753878	991.000000
474.792224	994.000000
474.830571	995.000000
474.868918	995.000000
474.907264	994.000000
474.945610	991.000000
474.983955	994.000000
475.022300	991.000000
475.060645	989.000000
475.098990	992.000000
475.137335	994.000000
475.175679	994.000000
475.214023	995.000000
475.252366	995.000000
475.290710	992.000000
475.329053	994.000000
475.367395	992.000000
475.405738	988.000000
475.444080	995.000000
475.482422	994.000000
475.520764	994.000000
475.559105	992.000000
475.597446	993.000000
475.635787	994.000000
475.674128	992.000000
475.712468	992.000000
475.750808	995.000000
475.789148	993.000000
475.827487	993.000000
475.865826	991.000000
475.904165	994.000000
475.942504	990.000000
475.980842	997.000000
476.019180	992.000000
476.057518	993.000000
476.095855	993.000000
476.134192	996.000000
476.172529	993.000000
476.210866	994.000000
476.249202	994.000000
476.287538	1000.000000
476.325874	994.000000
476.364210	993.000000
476.402545	994.000000
476.440880	993.000000
476.479214	994.000000
476.517549	989.000000
476.555883	991.000000
476.594217	995.000000
476.632550	991.000000
476.670883	993.000000
476.709216	991.000000
476.747549	992.000000
476.785882	991.000000
476.824214	995.000000
476.862546	994.000000
476.900877	991.000000
476.939208	992.000000
476.977539	993.000000
477.015870	995.000000
477.054201	994.000000
477.092531	991.000000
477.130861	995.000000
477.169190	993.000000
477.207519	996.000000
477.245849	990.000000
477.284177	995.000000
477.322506	992.000000
477.360834	997.000000
477.399162	992.000000
477.437489	992.000000
477.475817	992.000000
477.514144	991.000000
477.552471	992.000000
477.590797	991.000000
477.629123	995.000000
477.667449	993.000000
477.705775	993.000000
477.744100	994.000000
477.782425	993.000000
477.820750	992.000000
477.859075	994.000000
477.897399	993.000000
477.935723	995.000000
477.974046	993.000000
478.012370	993.000000
478.050693	996.000000
478.089016	997.000000
478.127338	993.000000
478.165661	995.000000
478.203982	991.000000
478.242304	994.000000
478.280626	991.000000
478.318947	991.000000
478.357267	993.000000
478.395588	990.000000
478.433908	995.000000
478.472228	990.000000
478.510548	994.000000
478.548867	993.000000
478.587186	993.000000
478.625505	993.000000
478.663824	994.000000
478.702142	994.000000
478.740460	994.000000
478.778778	992.000000
478.817095	991.000000
478.855412	992.000000
478.893729	992.000000
478.932046	995.000000
478.970362	993.000000
479.008678	991.000000
479.046994	991.000000
479.085309	993.000000
479.123624	994.000000
479.161939	996.000000
479.200254	990.000000
479.238568	992.000000
479.276882	990.000000
479.315196	992.000000
479.353509	993.000000
479.391822	994.000000
479.430135	992.000000
479.468448	996.000000
479.506760	993.000000
479.545072	994.000000
479.583384	994.000000
479.621695	993.000000
479.660006	994.000000
479.698317	993.000000
479.736628	992.000000
479.774938	992.000000
479.813248	993.000000
479.851558	995.000000
479.889867	992.000000
479.928176	994.000000
479.966485	994.000000
480.004793	996.000000
480.043102	991.000000
480.081410	993.000000
480.119717	994.000000
480.158025	992.000000
480.196332	993.000000
480.234639	995.000000
480.272945	991.000000
480.311252	992.000000
480.349558	993.000000
480.387863	991.000000
480.426169	994.000000
480.464474	991.000000
480.502779	994.000000
480.541083	995.000000
480.579387	992.000000
480.617691	992.000000
480.655995	994.000000
480.694298	993.000000
480.732602	992.000000
480.770904	995.000000
480.809207	995.000000
480.847509	992.000000
480.885811	994.000000
480.924113	992.000000
480.962414	993.000000
481.000715	993.000000
481.039016	991.000000
481.077316	992.000000
481.115617	996.000000
481.153917	995.000000
481.192216	992.000000
481.230516	992.000000
481.268815	993.000000
481.307113	992.000000
481.345412	993.000000
481.383710	995.000000
481.422008	993.000000
481.460306	991.000000
481.498603	992.000000
481.536900	995.000000
481.575197	995.000000
481.613493	991.000000
481.651789	994.000000
481.690085	994.000000
481.728381	993.000000
481.766676	991.000000
481.804971	991.000000
481.843266	993.000000
481.881560	993.000000
481.919854	993.000000
481.958148	994.000000
481.996442	995.000000
482.034735	991.000000
482.073028	991.000000
482.111321	994.000000
482.149613	993.000000
482.187905	995.000000
482.226197	991.000000
482.264489	994.000000
482.302780	993.000000
482.341071	995.000000
482.379362	992.000000
482.417652	994.000000
482.455942	993.000000
482.494232	992.000000
482.532521	995.000000
482.570810	995.000000
482.609099	994.000000
482.647388	996.000000
482.685676	996.000000
482.723964	995.000000
482.762252	993.000000
482.800540	992.000000
482.838827	992.000000
482.877114	994.000000
482.915400	995.000000
482.953687	993.000000
482.991973	991.000000
483.030258	990.000000
483.068544	992.000000
483.106829	993.000000
483.145114	992.000000
483.183398	995.000000
483.221682	992.000000
483.259966	992.000000
483.298250	991.000000
483.336533	996.000000
483.374817	995.000000
483.413099	994.000000
483.451382	994.000000
483.489664	995.000000
483.527946	993.000000
483.566228	990.000000
483.604509	994.000000
483.642790	994.000000
483.681071	995.000000
483.719351	994.000000
483.757631	990.000000
483.795911	993.000000
483.834191	996.000000
483.872470	992.000000
483.910749	993.000000
483.949028	994.000000
483.987306	995.000000
484.025584	997.000000
484.063862	993.000000
484.102139	992.000000
484.140417	994.000000
484.178694	997.000000
484.216970	992.000000
484.255247	993.000000
484.293523	993.000000
484.331798	994.000000
484.370074	992.000000
484.408349	995.000000
484.446624	995.000000
484.484899	993.000000
484.523173	991.000000
484.561447	993.000000
484.599720	995.000000
484.637994	991.000000
484.676267	994.000000
484.714540	992.000000
484.752812	998.000000
484.791085	995.000000
484.829356	990.000000
484.867628	994.000000
484.905899	992.000000
484.944171	994.000000
484.982441	992.000000
485.020712	995.000000
485.058982	991.000000
485.097252	994.000000
485.135521	990.000000
485.173791	991.000000
485.212060	996.000000
485.250328	994.000000
485.288597	994.000000
485.326865	992.000000
485.365133	993.000000
485.403400	994.000000
485.441667	990.000000
485.479934	991.000000
485.518201	992.000000
485.556467	991.000000
485.594733	992.000000
485.632999	994.000000
485.671264	989.000000
485.709529	996.000000
485.747794	993.000000
485.786059	992.000000
485.824323	994.000000
485.862587	993.000000
485.900851	992.000000
485.939114	991.000000
485.977377	993.000000
486.015640	994.000000
486.053902	996.000000
486.092164	992.000000
486.130426	993.000000
486.168688	993.000000
486.206949	995.000000
486.245210	994.000000
486.283471	993.000000
486.321731	990.000000
486.359991	992.000000
486.398251	994.000000
486.436511	992.000000
486.474770	994.000000
486.513029	994.000000
486.551287	993.000000
486.589546	995.000000
486.627804	991.000000
486.666061	994.000000
486.704319	996.000000
486.742576	994.000000
486.780833	995.000000
486.819089	990.000000
486.857345	996.000000
486.895601	994.000000
486.933857	993.000000
486.972112	993.000000
487.010367	995.000000
487.048622	994.000000
487.086877	994.000000
487.125131	994.000000
487.163385	993.000000
487.201638	991.000000
487.239891	993.000000
487.278144	995.000000
487.316397	992.000000
487.354649	990.000000
487.392901	989.000000
487.431153	991.000000
487.469404	996.000000
487.507656	993.000000
487.545906	992.000000
487.584157	992.000000
487.622407	993.000000
487.660657	994.000000
487.698907	995.000000
487.737156	994.000000
487.775405	993.000000
487.813654	992.000000
487.851902	993.000000
487.890151	994.000000
487.928398	994.000000
487.966646	994.000000
488.004893	995.000000
488.043140	992.000000
488.081387	995.000000
488.119633	990.000000
488.157879	994.000000
488.196125	993.000000
488.234370	995.000000
488.272616	995.000000
488.310860	991.000000
488.349105	995.000000
488.387349	991.000000
488.425593	995.000000
488.463837	992.000000
488.502080	994.000000
488.540323	993.000000
488.578566	993.000000
488.616808	994.000000
488.655051	993.000000
488.693292	993.000000
488.731534	997.000000
488.769775	995.000000
488.808016	993.000000
488.846257	995.000000
488.884497	992.000000
488.922737	994.000000
488.960977	995.000000
488.999216	993.000000
489.037455	994.000000
489.075694	993.000000
489.113933	996.000000
489.152171	994.000000
489.190409	994.000000
489.228647	994.000000
489.266884	994.000000
489.305121	993.000000
489.343358	994.000000
489.381594	996.000000
489.419830	991.000000
489.458066	994.000000
489.496301	993.000000
489.534537	992.000000
489.572772	993.000000
489.611006	994.000000
489.649240	997.000000
489.687474	992.000000
489.725708	992.000000
489.763942	997.000000
489.802175	993.000000
489.840407	996.000000
489.878640	990.000000
489.916872	994.000000
489.955104	993.000000
489.993335	994.000000
490.031567	993.000000
490.069798	990.000000
490.108028	995.000000
490.146259	992.000000
490.184489	994.000000
490.222719	993.000000
490.260948	995.000000
490.299177	992.000000
490.337406	992.000000
490.375635	995.000000
490.413863	995.000000
490.452091	994.000000
490.490318	994.000000
490.528546	994.000000
490.566773	992.000000
490.604999	994.000000
490.643226	992.000000
490.681452	994.000000
490.719678	991.000000
490.757903	994.000000
490.796128	993.000000
490.834353	995.000000
490.872578	991.000000
490.910802	992.000000
490.949026	994.000000
490.987250	992.000000
491.025473	990.000000
491.063696	995.000000
491.101919	994.000000
491.140141	993.000000
491.178363	992.000000
491.216585	994.000000
491.254807	997.000000
491.293028	990.000000
491.331249	997.000000
491.369470	993.000000
491.407690	994.000000
491.445910	995.000000
491.484130	994.000000
491.522349	991.000000
491.560568	993.000000
491.598787	994.000000
491.637005	991.000000
491.675223	990.000000
491.713441	995.000000
491.751659	995.000000
491.789876	992.000000
491.828093	993.000000
491.866310	992.000000
491.904526	988.000000
491.942742	993.000000
491.980958	994.000000
492.019173	996.000000
492.057388	994.000000
492.095603	991.000000
492.133817	995.000000
492.172032	991.000000
492.210246	994.000000
492.248459	993.000000
492.286672	993.000000
492.324885	994.000000
492.363098	993.000000
492.401310	994.000000
492.439522	994.000000
492.477734	992.000000
492.515945	994.000000
492.554157	990.000000
492.592367	996.000000
492.630578	992.000000
492.668788	994.000000
492.706998	996.000000
492.745208	992.000000
492.783417	995.000000
492.821626	996.000000
492.859834	993.000000
492.898043	989.000000
492.936251	995.000000
492.974459	993.000000
493.012666	994.000000
493.050873	996.000000
493.089080	996.000000
493.127286	993.000000
493.165492	993.000000
493.203698	994.000000
493.241904	992.000000
493.280109	997.000000
493.318314	990.000000
493.356519	995.000000
493.394723	992.000000
493.432927	994.000000
493.471131	992.000000
493.509334	993.000000
493.547537	993.000000
493.585740	992.000000
493.623943	992.000000
493.662145	995.000000
493.700347	993.000000
493.738548	996.000000
493.776749	992.000000
493.814950	991.000000
493.853151	991.000000
493.891351	990.000000
493.929551	990.000000
493.967751	994.000000
494.005950	994.000000
494.044149	995.000000
494.082348	995.000000
494.120547	992.000000
494.158745	995.000000
494.196943	992.000000
494.235140	992.000000
494.273337	996.000000
494.311534	992.000000
494.349731	992.000000
494.387927	992.000000
494.426123	993.000000
494.464319	997.000000
494.502514	994.000000
494.540709	993.000000
494.578904	994.000000
494.617098	993.000000
494.655292	992.000000
494.693486	995.000000
494.731680	993.000000
494.769873	990.000000
494.808066	994.000000
494.846258	992.000000
494.884450	993.000000
494.922642	994.000000
494.960834	995.000000
494.999025	994.000000
